# Pure H2O (Via Quickenden+1980, Krockel+2014)
# Wavelength (nm), Total Extinction (cm**-1), Rayleigh Scattering (cm**-1), Absorption (cm**-1), Err (cm**-1)
196.0 1.260000e-02 1.720112e-04 1.242799e-02 3.000000e-04
197.0 8.520000e-03 1.685451e-04 8.351455e-03 1.200000e-04
198.0 5.670000e-03 1.651659e-04 5.504834e-03 5.000000e-05
199.0 4.110000e-03 1.618709e-04 3.948129e-03 8.000000e-05
200.0 3.240000e-03 1.586577e-04 3.081342e-03 2.000000e-05
201.0 2.640000e-03 1.555238e-04 2.484476e-03 4.000000e-05
202.0 2.300000e-03 1.524669e-04 2.147533e-03 7.000000e-05
203.0 1.920000e-03 1.494847e-04 1.770515e-03 3.000000e-05
204.0 1.680000e-03 1.465752e-04 1.533425e-03 1.000000e-05
205.0 1.560000e-03 1.437360e-04 1.416264e-03 3.000000e-05
206.0 1.500000e-03 1.409653e-04 1.359035e-03 4.000000e-05
207.0 1.400000e-03 1.382610e-04 1.261739e-03 4.000000e-05
208.0 1.340000e-03 1.356212e-04 1.204379e-03 3.000000e-05
209.0 1.250000e-03 1.330442e-04 1.116956e-03 3.000000e-05
210.0 1.260000e-03 1.305281e-04 1.129472e-03 3.000000e-05
211.0 1.170000e-03 1.280711e-04 1.041929e-03 4.000000e-05
212.0 1.140000e-03 1.256717e-04 1.014328e-03 2.000000e-05
213.0 1.100000e-03 1.233283e-04 9.766717e-04 3.000000e-05
214.0 1.060000e-03 1.210392e-04 9.389608e-04 1.000000e-05
215.0 1.010000e-03 1.188029e-04 8.911971e-04 2.000000e-05
216.0 9.880000e-04 1.166181e-04 8.713819e-04 2.000000e-05
217.0 9.460000e-04 1.144833e-04 8.315167e-04 1.500000e-05
218.0 9.310000e-04 1.123971e-04 8.186029e-04 8.000000e-06
219.0 9.180000e-04 1.103582e-04 8.076418e-04 1.400000e-05
220.0 8.050000e-04 1.083653e-04 6.966347e-04 7.000000e-06
221.0 7.860000e-04 1.064172e-04 6.795828e-04 5.000000e-06
222.0 7.370000e-04 1.045127e-04 6.324873e-04 2.700000e-05
223.0 7.140000e-04 1.026506e-04 6.113494e-04 1.700000e-05
224.0 7.000000e-04 1.008298e-04 5.991702e-04 8.000000e-06
225.0 6.500000e-04 9.904920e-05 5.509508e-04 3.000000e-06
226.0 6.690000e-04 9.730772e-05 5.716923e-04 1.600000e-05
227.0 6.430000e-04 9.560434e-05 5.473957e-04 1.600000e-05
228.0 6.150000e-04 9.393807e-05 5.210619e-04 1.500000e-05
229.0 6.000000e-04 9.230795e-05 5.076920e-04 2.200000e-05
230.0 5.950000e-04 9.071303e-05 5.042870e-04 6.000000e-06
231.0 5.780000e-04 8.915242e-05 4.888476e-04 4.000000e-06
232.0 5.420000e-04 8.762522e-05 4.543748e-04 1.600000e-05
233.0 5.340000e-04 8.613058e-05 4.478694e-04 2.000000e-05
234.0 5.350000e-04 8.466767e-05 4.503323e-04 1.600000e-05
235.0 5.420000e-04 8.323569e-05 4.587643e-04 2.300000e-05
236.0 5.100000e-04 8.183386e-05 4.281661e-04 8.000000e-06
237.0 4.930000e-04 8.046141e-05 4.125386e-04 1.200000e-05
238.0 4.520000e-04 7.911762e-05 3.728824e-04 1.000000e-05
239.0 4.710000e-04 7.780176e-05 3.931982e-04 1.300000e-05
240.0 4.830000e-04 7.651315e-05 4.064869e-04 1.700000e-05
241.0 4.680000e-04 7.525110e-05 3.927489e-04 2.300000e-05
242.0 4.390000e-04 7.401497e-05 3.649850e-04 1.000000e-05
243.0 4.190000e-04 7.280412e-05 3.461959e-04 9.000000e-06
244.0 4.050000e-04 7.161792e-05 3.333821e-04 1.700000e-05
245.0 3.920000e-04 7.045579e-05 3.215442e-04 2.000000e-06
246.0 3.990000e-04 6.931714e-05 3.296829e-04 1.600000e-05
247.0 4.010000e-04 6.820139e-05 3.327986e-04 9.000000e-06
248.0 3.920000e-04 6.710800e-05 3.248920e-04 8.000000e-06
249.0 3.900000e-04 6.603644e-05 3.239636e-04 1.600000e-05
250.0 3.760000e-04 6.498618e-05 3.110138e-04 2.100000e-05
251.0 3.360000e-04 6.395672e-05 2.720433e-04 1.100000e-05
252.0 3.510000e-04 6.294756e-05 2.880524e-04 8.000000e-06
253.0 3.590000e-04 6.195822e-05 2.970418e-04 2.000000e-05
254.0 3.480000e-04 6.098825e-05 2.870118e-04 2.100000e-05
255.0 3.260000e-04 6.003718e-05 2.659628e-04 1.300000e-05
256.0 3.230000e-04 5.910459e-05 2.638954e-04 1.700000e-05
257.0 3.230000e-04 5.819003e-05 2.648100e-04 1.800000e-05
258.0 3.060000e-04 5.729309e-05 2.487069e-04 1.100000e-05
259.0 3.280000e-04 5.641336e-05 2.715866e-04 1.100000e-05
260.0 3.080000e-04 5.555046e-05 2.524495e-04 1.300000e-05
261.0 3.310000e-04 5.470399e-05 2.762960e-04 1.600000e-05
262.0 2.790000e-04 5.387358e-05 2.251264e-04 1.300000e-05
263.0 2.850000e-04 5.305888e-05 2.319411e-04 8.000000e-06
264.0 2.730000e-04 5.225951e-05 2.207405e-04 2.200000e-05
265.0 2.510000e-04 5.147514e-05 1.995249e-04 1.400000e-05
266.0 2.640000e-04 5.070543e-05 2.132946e-04 1.800000e-05
267.0 2.360000e-04 4.995006e-05 1.860499e-04 1.000000e-05
268.0 2.330000e-04 4.920870e-05 1.837913e-04 1.100000e-05
269.0 2.390000e-04 4.848104e-05 1.905190e-04 1.900000e-05
270.0 2.360000e-04 4.776678e-05 1.882332e-04 2.100000e-05
271.0 2.340000e-04 4.706563e-05 1.869344e-04 2.000000e-05
272.0 1.960000e-04 4.637730e-05 1.496227e-04 2.400000e-05
273.0 2.140000e-04 4.570150e-05 1.682985e-04 1.700000e-05
274.0 2.250000e-04 4.503797e-05 1.799620e-04 2.000000e-05
275.0 2.160000e-04 4.438643e-05 1.716136e-04 1.200000e-05
276.0 1.980000e-04 4.374664e-05 1.542534e-04 1.700000e-05
277.0 2.150000e-04 4.311833e-05 1.718817e-04 1.600000e-05
278.0 2.080000e-04 4.250126e-05 1.654987e-04 2.100000e-05
279.0 2.090000e-04 4.189520e-05 1.671048e-04 1.200000e-05
280.0 2.220000e-04 4.129989e-05 1.807001e-04 1.100000e-05
281.0 2.130000e-04 4.071512e-05 1.722849e-04 1.900000e-05
282.0 1.800000e-04 4.014067e-05 1.398593e-04 2.100000e-05
283.0 1.770000e-04 3.957631e-05 1.374237e-04 1.700000e-05
284.0 1.850000e-04 3.902183e-05 1.459782e-04 2.100000e-05
285.0 1.780000e-04 3.847703e-05 1.395230e-04 3.000000e-05
286.0 1.750000e-04 3.794171e-05 1.370583e-04 2.300000e-05
287.0 1.640000e-04 3.741566e-05 1.265843e-04 2.800000e-05
288.0 1.680000e-04 3.689870e-05 1.311013e-04 2.500000e-05
289.0 1.590000e-04 3.639064e-05 1.226094e-04 1.000000e-05
290.0 1.630000e-04 3.589129e-05 1.271087e-04 2.000000e-05
291.0 1.600000e-04 3.540047e-05 1.245995e-04 1.200000e-05
292.0 1.570000e-04 3.491802e-05 1.220820e-04 1.400000e-05
293.0 1.600000e-04 3.444376e-05 1.255562e-04 2.300000e-05
294.0 1.510000e-04 3.397752e-05 1.170225e-04 3.300000e-05
295.0 1.450000e-04 3.351915e-05 1.114809e-04 3.000000e-05
296.0 1.440000e-04 3.306848e-05 1.109315e-04 3.000000e-05
297.0 1.230000e-04 3.262535e-05 9.037465e-05 2.500000e-05
298.0 1.140000e-04 3.218963e-05 8.181037e-05 2.500000e-05
299.0 1.240000e-04 3.176115e-05 9.223885e-05 1.600000e-05
300.0 1.240000e-04 3.133979e-05 9.266021e-05 2.900000e-05
301.0 1.460000e-04 3.092538e-05 1.150746e-04 2.600000e-05
302.0 1.080000e-04 3.051780e-05 7.748220e-05 2.100000e-05
303.0 1.380000e-04 3.011692e-05 1.078831e-04 2.200000e-05
304.0 1.270000e-04 2.972259e-05 9.727741e-05 1.200000e-05
305.0 1.120000e-04 2.933470e-05 8.266530e-05 1.200000e-05
306.0 1.220000e-04 2.895312e-05 9.304688e-05 1.500000e-05
307.0 1.160000e-04 2.857772e-05 8.742228e-05 2.000000e-05
308.0 1.040000e-04 2.820838e-05 7.579162e-05 2.600000e-05
309.0 1.250000e-04 2.784499e-05 9.715501e-05 1.600000e-05
310.0 1.120000e-04 2.748744e-05 8.451256e-05 9.000000e-06
311.0 1.300000e-04 2.713560e-05 1.028644e-04 2.000000e-05
312.0 1.190000e-04 2.678938e-05 9.221062e-05 1.200000e-05
313.0 1.130000e-04 2.644866e-05 8.655134e-05 1.000000e-06
314.0 1.010000e-04 2.611334e-05 7.488666e-05 2.100000e-05
315.0 1.050000e-04 2.578332e-05 7.921668e-05 1.900000e-05
316.0 9.600000e-05 2.545849e-05 7.054151e-05 5.200000e-05
317.0 1.030000e-04 2.513877e-05 7.786123e-05 1.800000e-05
318.0 9.300000e-05 2.482405e-05 6.817595e-05 1.600000e-05
319.0 1.080000e-04 2.451423e-05 8.348577e-05 5.000000e-06
320.0 1.000000e-04 2.420924e-05 7.579076e-05 6.000000e-06
